File: Fresh Data/246/246_230502_C08.mpt
EC-Lab ASCII FILE
Nb header lines : 95

Modulo Bat

Run on channel : 8 (SN 55105)
User : Mitch
CE vs. WE compliance from -10 V to 10 V
Electrode connection : standard
Potential control : Ewe
Ewe ctrl range : min = -10.00 V, max = 10.00 V
Safety Limits :
	Do not start on E overload
Acquisition started on : 05/02/2023 14:36:29.764
Technique started on : 05/02/2023 14:36:29.764
Loaded Setting File :  C:\Users\OEMS\Documents\EC-Lab\Data\Mitch\Protocols\AMIDR Form.mps
Saved on :
	File : 246_230502_C08.mpr
	Directory : C:\Users\OEMS\Documents\EC-Lab\Data\Mitch\Results\Formation\
	Host : 192.168.1.58
Device : VMP-3e (SN .003109)
Address : USB
EC-Lab for windows v11.43 (software)
Internet server v11.40 (firmware)
Command interpretor v11.40 (firmware)
Electrode material :
Initial state :
Electrolyte :
Comments :
Mass of active material : 1.208 mg
 at x = 0.000
Molecular weight of active material (at x = 0) : 0.001 g/mol
Atomic weight of intercalated ion : 0.001 g/mol
Acquisition started at : xo = 0.000
Number of e- transfered per intercalated ion : 1
for DX = 1, DQ = 32376.209 mA.h
Battery capacity : 0.272 mA.h
Electrode surface area : 0.001 cm²
Characteristic mass : 0.001 g
Volume (V) : 0.001 cm³
Record Ece
Cycle Definition : Charge/Discharge alternance
Ns                  0                   1                   2                   3
ctrl_type           CC                  CC                  CC                  CV
Apply I/C           C / N               C / N               C / N               C / N
current/potential   current             current             current             current
ctrl1_val           60.000              60.000              60.000              0.000
ctrl1_val_unit      µA                  µA                  µA                  V
ctrl1_val_vs        <None>              <None>              <None>              Emeas
ctrl2_val
ctrl2_val_unit
ctrl2_val_vs
ctrl3_val
ctrl3_val_unit
ctrl3_val_vs
N                   20.00               20.00               20.00               20.00
charge/discharge    Charge              Discharge           Charge              Charge
charge/discharge_1  Charge              Charge              Charge              Charge
Apply I/C_1         I                   I                   I                   I
N1                  0.00                0.00                0.00                0.00
ctrl4_val
ctrl4_val_unit
ctrl_seq            0                   0                   0                   0
ctrl_repeat         0                   0                   0                   0
ctrl_trigger        Falling Edge        Falling Edge        Falling Edge        Falling Edge
ctrl_TO_t           0.000               0.000               0.000               0.000
ctrl_TO_t_unit      d                   d                   d                   d
ctrl_Nd             6                   6                   6                   6
ctrl_Na             2                   2                   2                   2
ctrl_corr           0                   0                   0                   0
lim_nb              1                   1                   1                   1
lim1_type           Ewe-Ece             Ewe-Ece             Ewe-Ece             Time
lim1_comp           >                   <                   >                   >
lim1_Q              Q limit             Q limit             Q limit             Q limit
lim1_value          4.200               3.000               4.200               15.000
lim1_value_unit     V                   V                   V                   mn
lim1_action         Next sequence       Next sequence       Next sequence       Next sequence
lim1_seq            1                   2                   3                   4
rec_nb              2                   2                   2                   1
rec1_type           Time                Time                Time                Time
rec1_value          20.000              20.000              20.000              30.000
rec1_value_unit     mn                  mn                  mn                  s
rec2_type           Ewe-Ece             Ewe-Ece             Ewe-Ece             Ewe-Ece
rec2_value          0.010               0.010               0.010               0.010
rec2_value_unit     V                   V                   V                   V
E range min (V)     -10.000             -10.000             -10.000             -10.000
E range max (V)     10.000              10.000              10.000              10.000
I Range             10 µA               10 µA               10 µA               10 µA
I Range min         Unset               Unset               Unset               Unset
I Range max         Unset               Unset               Unset               Unset
I Range init        Unset               Unset               Unset               Unset
auto rest           0                   0                   0                   0
Bandwidth           5                   5                   5                   5

mode	ox/red	error	control changes	Ns changes	counter inc.	Ns	I Range	time/s	control/V/mA	Ewe/V	I/mA	dq/mA.h	(Q-Qo)/mA.h	|Energy|/W.h	Q charge/discharge/mA.h	half cycle	Ece/V	Energy charge/W.h	Energy discharge/W.h	Capacitance charge/µF	Capacitance discharge/µF	x	Q discharge/mA.h	Q charge/mA.h	Capacity/mA.h	Efficiency/%	control/V	control/mA	cycle number	P/W	Ewe-Ece/V	R/Ohm
1	1	0	0	0	0	0	14	0.000000000000000E+000	0.0136	1.28082	0.0135261	0.000000000000000E+000	0.000000000000000E+000	0.000000000000000E+000	0.000000000000000E+000	0	-0.316572	0.000000000000000E+000	0.000000000000000E+000	0.000000000000000E+000	0.000000000000000E+000	0.000000000000000E+000	0.000000000000000E+000	0.000000000000000E+000	0.000000000000000E+000	0.0000000E+000	0.0000000E+000	0.0136	0.000000000000000E+000	1.73245e-05	1.59739	94692.9
1	1	0	0	0	0	0	14	6871.2	0.0136	1.46227	0.0136005	0.00145544	0.0259596	3.57524e-05	0.0259596	0	-0.315722	3.57524e-05	0.000000000000000E+000	0.000000000000000E+000	0.000000000000000E+000	-8.01811e-07	0.000000000000000E+000	0.0259596	0.0259596	0.0000000E+000	0.0000000E+000	0.0136	0.000000000000000E+000	1.98876e-05	1.77799	107516
1	1	0	0	0	0	0	14	11544.9	0.0136	1.64346	0.0136015	0.000597521	0.0436168	6.29145e-05	0.0436168	0	-0.315074	6.29145e-05	0.000000000000000E+000	0.000000000000000E+000	0.000000000000000E+000	-1.34719e-06	0.000000000000000E+000	0.0436168	0.0436168	0.0000000E+000	0.0000000E+000	0.0136	0.000000000000000E+000	2.23534e-05	1.95853	120830
1	1	0	0	0	0	0	14	13412.4	0.0136	1.82389	0.0136008	0.000263392	0.0506724	7.5059e-05	0.0506724	0	-0.315245	7.5059e-05	0.000000000000000E+000	0.000000000000000E+000	0.000000000000000E+000	-1.56511e-06	0.000000000000000E+000	0.0506724	0.0506724	0.0000000E+000	0.0000000E+000	0.0136	0.000000000000000E+000	2.48062e-05	2.13913	134102
1	1	0	0	0	0	0	14	14363.3	0.0136	2.00456	0.0136011	0.00015863	0.0542648	8.19074e-05	0.0542648	0	-0.315264	8.19074e-05	0.000000000000000E+000	0.000000000000000E+000	0.000000000000000E+000	-1.67607e-06	0.000000000000000E+000	0.0542648	0.0542648	0.0000000E+000	0.0000000E+000	0.0136	0.000000000000000E+000	2.72643e-05	2.31983	147382
1	1	0	0	0	0	0	14	14982.4	0.0136	2.18541	0.0136014	0.000109827	0.0566038	8.6795e-05	0.0566038	0	-0.31515	8.6795e-05	0.000000000000000E+000	0.000000000000000E+000	0.000000000000000E+000	-1.74831e-06	0.000000000000000E+000	0.0566038	0.0566038	0.0000000E+000	0.0000000E+000	0.0136	0.000000000000000E+000	2.97247e-05	2.50056	160676
1	1	0	0	0	0	0	14	15443.9	0.0136	2.36594	0.0136012	8.72617e-05	0.0583473	9.07562e-05	0.0583473	0	-0.315112	9.07562e-05	0.000000000000000E+000	0.000000000000000E+000	0.000000000000000E+000	-1.80217e-06	0.000000000000000E+000	0.0583473	0.0583473	0.0000000E+000	0.0000000E+000	0.0136	0.000000000000000E+000	3.21796e-05	2.68105	173950
1	1	0	0	0	0	0	14	15826.2	0.0136	2.54636	0.0136007	7.60792e-05	0.059792	9.43015e-05	0.059792	0	-0.315188	9.43015e-05	0.000000000000000E+000	0.000000000000000E+000	0.000000000000000E+000	-1.84679e-06	0.000000000000000E+000	0.059792	0.059792	0.0000000E+000	0.0000000E+000	0.0136	0.000000000000000E+000	3.46323e-05	2.86155	187223
1	1	0	0	0	0	0	14	16162.8	0.0136	2.72702	0.0136007	6.7941e-05	0.0610637	9.76523e-05	0.0610637	0	-0.315169	9.76523e-05	0.000000000000000E+000	0.000000000000000E+000	0.000000000000000E+000	-1.88607e-06	0.000000000000000E+000	0.0610637	0.0610637	0.0000000E+000	0.0000000E+000	0.0136	0.000000000000000E+000	3.70894e-05	3.04219	200506
1	1	0	0	0	0	0	14	16474.7	0.0136	2.90779	0.013601	6.43594e-05	0.0622418	0.00010097	0.0622418	0	-0.31515	0.00010097	0.000000000000000E+000	0.000000000000000E+000	0.000000000000000E+000	-1.92245e-06	0.000000000000000E+000	0.0622418	0.0622418	0.0000000E+000	0.0000000E+000	0.0136	0.000000000000000E+000	3.9549e-05	3.22294	213792
1	1	0	0	0	0	0	14	16782.5	0.0136	3.08859	0.0136008	6.71803e-05	0.0634047	0.000104458	0.0634047	0	-0.315131	0.000104458	0.000000000000000E+000	0.000000000000000E+000	0.000000000000000E+000	-1.95837e-06	0.000000000000000E+000	0.0634047	0.0634047	0.0000000E+000	0.0000000E+000	0.0136	0.000000000000000E+000	4.20073e-05	3.40372	227088
1	1	0	0	0	0	0	14	17279.4	0.0136	3.26947	0.0136012	0.000207811	0.0652822	0.00011046	0.0652822	0	-0.314806	0.00011046	0.000000000000000E+000	0.000000000000000E+000	0.000000000000000E+000	-2.01636e-06	0.000000000000000E+000	0.0652822	0.0652822	0.0000000E+000	0.0000000E+000	0.0136	0.000000000000000E+000	4.44688e-05	3.58428	240381
1	1	0	0	0	0	0	14	30227.3	0.0136	3.43399	0.0136009	0.00453356	0.114199	0.000276165	0.114199	0	-0.310838	0.000276165	0.000000000000000E+000	0.000000000000000E+000	0.000000000000000E+000	-3.52725e-06	0.000000000000000E+000	0.114199	0.114199	0.0000000E+000	0.0000000E+000	0.0136	0.000000000000000E+000	4.67053e-05	3.74483	252483
1	1	0	0	0	0	0	14	51475.7	0.0136	3.59946	0.0136003	0.00386757	0.194474	0.000558833	0.194474	0	-0.287693	0.000558833	0.000000000000000E+000	0.000000000000000E+000	0.000000000000000E+000	-6.00669e-06	0.000000000000000E+000	0.194474	0.194474	0.0000000E+000	0.0000000E+000	0.0136	0.000000000000000E+000	4.89537e-05	3.88715	264660
1	1	0	0	0	0	0	14	64486.9	0.0136	3.77632	0.0135996	0.00228927	0.243628	0.000739768	0.243628	0	-0.291261	0.000739768	0.000000000000000E+000	0.000000000000000E+000	0.000000000000000E+000	-7.5249e-06	0.000000000000000E+000	0.243628	0.243628	0.0000000E+000	0.0000000E+000	0.0136	0.000000000000000E+000	5.13562e-05	4.06758	277680
1	0	0	1	0	0	1	14	72435.9	-0.0136	3.88863	-0.013604	-0.000952055	0.271427	0.00085515	-0.00111546	1	-0.292158	0.000850806	4.34414e-06	0.000000000000000E+000	0.000000000000000E+000	-8.38352e-06	0.00111546	0.000000000000000E+000	0.00111546	0.0000000E+000	0.0000000E+000	-0.0136	0.000000000000000E+000	-5.29011e-05	4.18079	285844
1	0	0	1	0	0	1	14	79827.5	-0.0136	3.70691	-0.0136037	-0.00187032	0.243494	0.000961026	-0.0290477	1	-0.293169	0.000850806	0.00011022	0.000000000000000E+000	0.000000000000000E+000	-7.52078e-06	0.0290477	0.000000000000000E+000	0.0290477	0.0000000E+000	0.0000000E+000	-0.0136	0.000000000000000E+000	-5.04275e-05	4.00008	272493
1	0	0	1	0	0	1	14	92681.8	-0.0136	3.52781	-0.0136046	-0.00422999	0.194919	0.00113612	-0.077623	1	-0.291814	0.000850806	0.000285313	0.000000000000000E+000	0.000000000000000E+000	-6.02044e-06	0.077623	0.000000000000000E+000	0.077623	0.0000000E+000	0.0000000E+000	-0.0136	0.000000000000000E+000	-4.79945e-05	3.81963	259310
1	0	0	1	0	0	1	14	111570	-0.0136	3.36624	-0.0136042	-0.00172231	0.123541	0.00138297	-0.149001	1	-0.289544	0.000850806	0.000532166	0.000000000000000E+000	0.000000000000000E+000	-3.81581e-06	0.149001	0.000000000000000E+000	0.149001	0.0000000E+000	0.0000000E+000	-0.0136	0.000000000000000E+000	-4.57951e-05	3.65578	247440
1	0	0	1	0	0	1	14	113750	-0.0136	3.18609	-0.0136037	-0.00016915	0.115304	0.00141024	-0.157238	1	-0.289048	0.000850806	0.000559437	0.000000000000000E+000	0.000000000000000E+000	-3.56138e-06	0.157238	0.000000000000000E+000	0.157238	0.0000000E+000	0.0000000E+000	-0.0136	0.000000000000000E+000	-4.33425e-05	3.47514	234209
1	0	0	1	0	0	1	14	114403	-0.0136	3.00588	-0.0136038	-0.000117299	0.112837	0.00141789	-0.159705	1	-0.288742	0.000850806	0.000567087	0.000000000000000E+000	0.000000000000000E+000	-3.4852e-06	0.159705	0.000000000000000E+000	0.159705	0.0000000E+000	0.0000000E+000	-0.0136	0.000000000000000E+000	-4.08913e-05	3.29462	220959
1	0	0	1	0	0	1	14	114880	-0.0136	2.82571	-0.0136038	-8.70523e-05	0.111033	0.00142316	-0.161509	1	-0.288342	0.000850806	0.000572357	0.000000000000000E+000	0.000000000000000E+000	-3.42946e-06	0.161509	0.000000000000000E+000	0.161509	0.0000000E+000	0.0000000E+000	-0.0136	0.000000000000000E+000	-3.84404e-05	3.11406	207715
1	1	0	0	0	0	2	14	115123	0.0136	2.75416	0.0136004	1.36455e-06	0.110125	0.0014257	4.59459e-06	2	-0.289009	1.25712e-08	0.000000000000000E+000	0.000000000000000E+000	0.000000000000000E+000	-3.40141e-06	0.000000000000000E+000	4.59459e-06	4.59459e-06	0.0000000E+000	0.0000000E+000	0.0136	1	3.74576e-05	3.04316	202506
1	1	0	0	0	0	2	14	115134	0.0136	2.93355	0.0136003	3.20132e-06	0.110166	0.00142582	4.56368e-05	2	-0.290421	1.29775e-07	0.000000000000000E+000	0.000000000000000E+000	0.000000000000000E+000	-3.40268e-06	0.000000000000000E+000	4.56368e-05	4.56368e-05	0.0000000E+000	0.0000000E+000	0.0136	1	3.98973e-05	3.22397	215697
1	1	0	0	0	0	2	14	115155	0.0136	3.11408	0.0136	5.73928e-06	0.110246	0.00142606	0.000126127	2	-0.290822	3.7384e-07	0.000000000000000E+000	0.000000000000000E+000	0.000000000000000E+000	-3.40517e-06	0.000000000000000E+000	0.000126127	0.000126127	0.0000000E+000	0.0000000E+000	0.0136	1	4.23514e-05	3.4049	228976
1	1	0	0	0	0	2	14	115202	0.0136	3.29561	0.0136002	1.94014e-05	0.110422	0.00142663	0.000301399	2	-0.29025	9.38749e-07	0.000000000000000E+000	0.000000000000000E+000	0.000000000000000E+000	-3.41058e-06	0.000000000000000E+000	0.000301399	0.000301399	0.0000000E+000	0.0000000E+000	0.0136	1	4.4821e-05	3.58586	242321
1	1	0	0	0	0	2	14	124799	0.0136	3.46711	0.0136003	0.0045334	0.14668	0.00155105	0.0365594	2	-0.289525	0.000125355	0.000000000000000E+000	0.000000000000000E+000	0.000000000000000E+000	-4.53047e-06	0.000000000000000E+000	0.0365594	0.0365594	0.0000000E+000	0.0000000E+000	0.0136	1	4.71536e-05	3.75664	254930
1	1	0	0	0	0	2	14	144136	0.0136	3.62884	0.0135999	0.00281451	0.21973	0.00180936	0.10961	2	-0.290364	0.000383668	0.000000000000000E+000	0.000000000000000E+000	0.000000000000000E+000	-6.78677e-06	0.000000000000000E+000	0.10961	0.10961	0.0000000E+000	0.0000000E+000	0.0136	1	4.9352e-05	3.91921	266828
1	1	0	0	0	0	2	14	154728	0.0136	3.80906	0.0135997	0.00197446	0.259745	0.00195799	0.149624	2	-0.290631	0.000532297	0.000000000000000E+000	0.000000000000000E+000	0.000000000000000E+000	-8.0227e-06	0.000000000000000E+000	0.149624	0.149624	0.0000000E+000	0.0000000E+000	0.0136	1	5.1802e-05	4.09969	280085
2	1	0	1	0	0	3	14	159998	3.90981	3.90925	0.00626739	5.47176e-05	0.279427	0.00203396	0.169307	2	-0.290173	0.000608272	0.000000000000000E+000	0.000000000000000E+000	0.000000000000000E+000	-8.63063e-06	0.000000000000000E+000	0.169307	0.169307	0.0000000E+000	3.90981	0.0000000E+000	1	2.45008e-05	4.19943	623745
2	1	0	1	0	0	3	14	160538	3.90981	3.90893	0.00325476	2.65262e-05	0.280051	0.0020364	0.169931	2	-0.290116	0.000610712	0.000000000000000E+000	0.000000000000000E+000	0.000000000000000E+000	-8.6499e-06	0.000000000000000E+000	0.169931	0.169931	0.0000000E+000	3.90981	0.0000000E+000	1	1.27226e-05	4.19905	1.20099e+06
2	1	0	1	0	0	3	14	160748	3.90981	3.90908	0.00284884	2.38879e-05	0.280224	0.00203708	0.170104	2	-0.290192	0.000611389	0.000000000000000E+000	0.000000000000000E+000	0.000000000000000E+000	-8.65526e-06	0.000000000000000E+000	0.170104	0.170104	0.0000000E+000	3.90981	0.0000000E+000	1	1.11363e-05	4.19927	1.37217e+06