File: Analyzed Data/239/239_230502_C05.mpt
EC-Lab ASCII FILE
Nb header lines : 95

Modulo Bat

Run on channel : 5 (SN 55168)
User : Mitch
CE vs. WE compliance from -10 V to 10 V
Electrode connection : standard
Potential control : Ewe
Ewe ctrl range : min = -10.00 V, max = 10.00 V
Safety Limits :
	Do not start on E overload
Acquisition started on : 05/02/2023 14:35:43.272
Technique started on : 05/02/2023 14:35:43.272
Loaded Setting File :  C:\Users\OEMS\Documents\EC-Lab\Data\Mitch\Protocols\AMIDR Form.mps
Saved on :
	File : 239_230502_C05.mpr
	Directory : C:\Users\OEMS\Documents\EC-Lab\Data\Mitch\Results\Formation\
	Host : 192.168.1.58
Device : VMP-3e (SN .003109)
Address : USB
EC-Lab for windows v11.43 (software)
Internet server v11.40 (firmware)
Command interpretor v11.40 (firmware)
Electrode material :
Initial state :
Electrolyte :
Comments :
Mass of active material : 1.317 mg
 at x = 0.000
Molecular weight of active material (at x = 0) : 0.001 g/mol
Atomic weight of intercalated ion : 0.001 g/mol
Acquisition started at : xo = 0.000
Number of e- transfered per intercalated ion : 1
for DX = 1, DQ = 35297.575 mA.h
Battery capacity : 0.296 mA.h
Electrode surface area : 0.001 cm²
Characteristic mass : 0.001 g
Volume (V) : 0.001 cm³
Record Ece
Cycle Definition : Charge/Discharge alternance
Ns                  0                   1                   2                   3
ctrl_type           CC                  CC                  CC                  CV
Apply I/C           C / N               C / N               C / N               C / N
current/potential   current             current             current             current
ctrl1_val           60.000              60.000              60.000              0.000
ctrl1_val_unit      µA                  µA                  µA                  V
ctrl1_val_vs        <None>              <None>              <None>              Emeas
ctrl2_val
ctrl2_val_unit
ctrl2_val_vs
ctrl3_val
ctrl3_val_unit
ctrl3_val_vs
N                   20.00               20.00               20.00               20.00
charge/discharge    Charge              Discharge           Charge              Charge
charge/discharge_1  Charge              Charge              Charge              Charge
Apply I/C_1         I                   I                   I                   I
N1                  0.00                0.00                0.00                0.00
ctrl4_val
ctrl4_val_unit
ctrl_seq            0                   0                   0                   0
ctrl_repeat         0                   0                   0                   0
ctrl_trigger        Falling Edge        Falling Edge        Falling Edge        Falling Edge
ctrl_TO_t           0.000               0.000               0.000               0.000
ctrl_TO_t_unit      d                   d                   d                   d
ctrl_Nd             6                   6                   6                   6
ctrl_Na             2                   2                   2                   2
ctrl_corr           0                   0                   0                   0
lim_nb              1                   1                   1                   1
lim1_type           Ewe-Ece             Ewe-Ece             Ewe-Ece             Time
lim1_comp           >                   <                   >                   >
lim1_Q              Q limit             Q limit             Q limit             Q limit
lim1_value          4.200               3.000               4.200               15.000
lim1_value_unit     V                   V                   V                   mn
lim1_action         Next sequence       Next sequence       Next sequence       Next sequence
lim1_seq            1                   2                   3                   4
rec_nb              2                   2                   2                   1
rec1_type           Time                Time                Time                Time
rec1_value          20.000              20.000              20.000              30.000
rec1_value_unit     mn                  mn                  mn                  s
rec2_type           Ewe-Ece             Ewe-Ece             Ewe-Ece             Ewe-Ece
rec2_value          0.010               0.010               0.010               0.010
rec2_value_unit     V                   V                   V                   V
E range min (V)     -10.000             -10.000             -10.000             -10.000
E range max (V)     10.000              10.000              10.000              10.000
I Range             10 µA               10 µA               10 µA               10 µA
I Range min         Unset               Unset               Unset               Unset
I Range max         Unset               Unset               Unset               Unset
I Range init        Unset               Unset               Unset               Unset
auto rest           0                   0                   0                   0
Bandwidth           5                   5                   5                   5

mode	ox/red	error	control changes	Ns changes	counter inc.	Ns	I Range	time/s	control/V/mA	Ewe/V	I/mA	dq/mA.h	(Q-Qo)/mA.h	|Energy|/W.h	Q charge/discharge/mA.h	half cycle	Ece/V	Energy charge/W.h	Energy discharge/W.h	Capacitance charge/µF	Capacitance discharge/µF	x	Q discharge/mA.h	Q charge/mA.h	Capacity/mA.h	Efficiency/%	control/V	control/mA	cycle number	P/W	Ewe-Ece/V	R/Ohm
1	1	0	1	0	0	0	14	0.000000000000000E+000	0.0148	2.73394	0.0147168	0.000000000000000E+000	0.000000000000000E+000	0.000000000000000E+000	0.000000000000000E+000	0	-0.309397	0.000000000000000E+000	0.000000000000000E+000	0.000000000000000E+000	0.000000000000000E+000	0.000000000000000E+000	0.000000000000000E+000	0.000000000000000E+000	0.000000000000000E+000	0.0000000E+000	0.0000000E+000	0.0148	0.000000000000000E+000	4.0235e-05	3.04334	185770
1	1	0	1	0	0	0	14	4.5754	0.0148	2.86341	0.0148014	1.77295e-06	1.88126e-05	5.27404e-08	1.88126e-05	0	-0.310706	5.27404e-08	0.000000000000000E+000	0.000000000000000E+000	0.000000000000000E+000	-5.32972e-10	0.000000000000000E+000	1.88126e-05	1.88126e-05	0.0000000E+000	0.0000000E+000	0.0148	0.000000000000000E+000	4.23826e-05	3.17412	193455
1	1	0	1	0	0	0	14	11.9542	0.0148	2.99448	0.0148021	2.96616e-06	4.91518e-05	1.41778e-07	4.91518e-05	0	-0.310306	1.41778e-07	0.000000000000000E+000	0.000000000000000E+000	0.000000000000000E+000	-1.3925e-09	0.000000000000000E+000	4.91518e-05	4.91518e-05	0.0000000E+000	0.0000000E+000	0.0148	0.000000000000000E+000	4.43245e-05	3.30478	202301
1	1	0	1	0	0	0	14	25.2292	0.0148	3.12524	0.0148025	5.39448e-06	0.000103734	3.09127e-07	0.000103734	0	-0.310096	3.09127e-07	0.000000000000000E+000	0.000000000000000E+000	0.000000000000000E+000	-2.93884e-09	0.000000000000000E+000	0.000103734	0.000103734	0.0000000E+000	0.0000000E+000	0.0148	0.000000000000000E+000	4.62612e-05	3.43533	211130
1	1	0	1	0	0	0	14	47.179	0.0148	3.25541	0.0148022	8.65253e-06	0.000193984	5.97492e-07	0.000193984	0	-0.310344	5.97492e-07	0.000000000000000E+000	0.000000000000000E+000	0.000000000000000E+000	-5.49566e-09	0.000000000000000E+000	0.000193984	0.000193984	0.0000000E+000	0.0000000E+000	0.0148	0.000000000000000E+000	4.81872e-05	3.56575	219927
1	1	0	1	0	0	0	14	329.698	0.0148	3.38407	0.0148018	0.000674827	0.00135558	4.5089e-06	0.00135558	0	-0.312232	4.5089e-06	0.000000000000000E+000	0.000000000000000E+000	0.000000000000000E+000	-3.84044e-08	0.000000000000000E+000	0.00135558	0.00135558	0.0000000E+000	0.0000000E+000	0.0148	0.000000000000000E+000	5.00902e-05	3.6963	228626
1	1	0	1	0	0	0	14	15929.7	0.0148	3.46075	0.0148018	0.00493377	0.0654955	0.000223401	0.0654955	0	-0.316791	0.000223401	0.000000000000000E+000	0.000000000000000E+000	0.000000000000000E+000	-1.85552e-06	0.000000000000000E+000	0.0654955	0.0654955	0.0000000E+000	0.0000000E+000	0.0148	0.000000000000000E+000	5.12255e-05	3.77754	233806
1	1	0	1	0	0	0	14	26299.4	0.0148	3.59176	0.0148012	0.00251112	0.10813	0.000373356	0.10813	0	-0.31618	0.000373356	0.000000000000000E+000	0.000000000000000E+000	0.000000000000000E+000	-3.06339e-06	0.000000000000000E+000	0.10813	0.10813	0.0000000E+000	0.0000000E+000	0.0148	0.000000000000000E+000	5.31624e-05	3.90794	242667
1	1	0	1	0	0	0	14	35086.1	0.0148	3.72268	0.0148011	0.00304777	0.144256	0.000505557	0.144256	0	-0.315589	0.000505557	0.000000000000000E+000	0.000000000000000E+000	0.000000000000000E+000	-4.08686e-06	0.000000000000000E+000	0.144256	0.144256	0.0000000E+000	0.0000000E+000	0.0148	0.000000000000000E+000	5.50996e-05	4.03827	251514
1	1	0	1	0	0	0	14	44415.6	0.0148	3.85319	0.0148012	0.00288563	0.182614	0.000650807	0.182614	0	-0.315417	0.000650807	0.000000000000000E+000	0.000000000000000E+000	0.000000000000000E+000	-5.17355e-06	0.000000000000000E+000	0.182614	0.182614	0.0000000E+000	0.0000000E+000	0.0148	0.000000000000000E+000	5.7032e-05	4.16861	260329
1	0	0	0	0	0	1	14	48472.6	-0.0148	3.81699	-0.0148018	-0.0012399	0.187238	0.00071519	-0.0060285	1	-0.310725	0.000692028	2.31619e-05	0.000000000000000E+000	0.000000000000000E+000	-5.30455e-06	0.0060285	0.000000000000000E+000	0.0060285	0.0000000E+000	0.0000000E+000	-0.0148	0.000000000000000E+000	-5.64982e-05	4.12771	257874
1	0	0	0	0	0	1	14	53208	-0.0148	3.68714	-0.0148024	-0.00183743	0.167767	0.000788155	-0.025499	1	-0.31021	0.000692028	9.61272e-05	0.000000000000000E+000	0.000000000000000E+000	-4.75294e-06	0.025499	0.000000000000000E+000	0.025499	0.0000000E+000	0.0000000E+000	-0.0148	0.000000000000000E+000	-5.45786e-05	3.99735	249091
1	0	0	0	0	0	1	14	58940.7	-0.0148	3.55733	-0.0148023	-0.00181533	0.144196	0.000873556	-0.0490703	1	-0.309676	0.000692028	0.000181527	0.000000000000000E+000	0.000000000000000E+000	-4.08515e-06	0.0490703	0.000000000000000E+000	0.0490703	0.0000000E+000	0.0000000E+000	-0.0148	0.000000000000000E+000	-5.26567e-05	3.86701	240323
1	0	0	0	0	0	1	14	68135.2	-0.0148	3.42768	-0.0148021	-0.00439876	0.10639	0.00100517	-0.0868761	1	-0.309009	0.000692028	0.000313144	0.000000000000000E+000	0.000000000000000E+000	-3.01409e-06	0.0868761	0.000000000000000E+000	0.0868761	0.0000000E+000	0.0000000E+000	-0.0148	0.000000000000000E+000	-5.07369e-05	3.73669	231567
1	0	0	0	0	0	1	14	78543.8	-0.0148	3.29816	-0.0148024	-0.00225718	0.0635926	0.00114945	-0.129674	1	-0.30815	0.000692028	0.000457419	0.000000000000000E+000	0.000000000000000E+000	-1.80161e-06	0.129674	0.000000000000000E+000	0.129674	0.0000000E+000	0.0000000E+000	-0.0148	0.000000000000000E+000	-4.88205e-05	3.60631	222813
1	0	0	0	0	0	1	14	82283	-0.0148	3.16763	-0.0148026	-0.000626208	0.0482181	0.00119938	-0.145048	1	-0.308093	0.000692028	0.000507348	0.000000000000000E+000	0.000000000000000E+000	-1.36605e-06	0.145048	0.000000000000000E+000	0.145048	0.0000000E+000	0.0000000E+000	-0.0148	0.000000000000000E+000	-4.68891e-05	3.47572	213991
1	0	0	0	0	0	1	14	83552.3	-0.0148	3.03751	-0.0148022	-0.000269801	0.0429989	0.00121562	-0.150267	1	-0.307674	0.000692028	0.000523588	0.000000000000000E+000	0.000000000000000E+000	-1.21818e-06	0.150267	0.000000000000000E+000	0.150267	0.0000000E+000	0.0000000E+000	-0.0148	0.000000000000000E+000	-4.49618e-05	3.34519	205207
1	0	0	0	0	0	1	14	84188.7	-0.0148	2.90721	-0.0148022	-0.000161755	0.0403822	0.00122341	-0.152884	1	-0.307578	0.000692028	0.000531381	0.000000000000000E+000	0.000000000000000E+000	-1.14405e-06	0.152884	0.000000000000000E+000	0.152884	0.0000000E+000	0.0000000E+000	-0.0148	0.000000000000000E+000	-4.30332e-05	3.21479	196404
1	0	0	0	0	0	1	14	84619.3	-0.0148	2.77685	-0.014802	-0.000119288	0.0386118	0.00122845	-0.154654	1	-0.307426	0.000692028	0.000536418	0.000000000000000E+000	0.000000000000000E+000	-1.09389e-06	0.154654	0.000000000000000E+000	0.154654	0.0000000E+000	0.0000000E+000	-0.0148	0.000000000000000E+000	-4.1103e-05	3.08427	187599
1	1	0	1	0	0	2	14	84850.1	0.0148	2.70791	0.0148016	7.36768e-07	0.0376649	0.00123104	1.11091e-06	2	-0.312137	2.99993e-09	0.000000000000000E+000	0.000000000000000E+000	0.000000000000000E+000	-1.06707e-06	0.000000000000000E+000	1.11091e-06	1.11091e-06	0.0000000E+000	0.0000000E+000	0.0148	1	4.00813e-05	3.02004	182947
1	1	0	1	0	0	2	14	84854	0.0148	2.83909	0.0148006	1.59852e-06	0.0376808	0.00123109	1.69613e-05	2	-0.311812	4.70776e-08	0.000000000000000E+000	0.000000000000000E+000	0.000000000000000E+000	-1.06752e-06	0.000000000000000E+000	1.69613e-05	1.69613e-05	0.0000000E+000	0.0000000E+000	0.0148	1	4.20203e-05	3.1509	191822
1	1	0	1	0	0	2	14	84861.2	0.0148	2.96993	0.0148013	2.94213e-06	0.0377104	0.00123117	4.65396e-05	2	-0.311584	1.33177e-07	0.000000000000000E+000	0.000000000000000E+000	0.000000000000000E+000	-1.06836e-06	0.000000000000000E+000	4.65396e-05	4.65396e-05	0.0000000E+000	0.0000000E+000	0.0148	1	4.39588e-05	3.28151	200653
1	1	0	1	0	0	2	14	84873.7	0.0148	3.10063	0.0148011	4.98961e-06	0.037762	0.00123133	9.81616e-05	2	-0.311698	2.90152e-07	0.000000000000000E+000	0.000000000000000E+000	0.000000000000000E+000	-1.06982e-06	0.000000000000000E+000	9.81616e-05	9.81616e-05	0.0000000E+000	0.0000000E+000	0.0148	1	4.58928e-05	3.41233	209486
1	1	0	1	0	0	2	14	84898.8	0.0148	3.23103	0.014801	1.40684e-05	0.0378649	0.00123166	0.000201133	2	-0.312022	6.17305e-07	0.000000000000000E+000	0.000000000000000E+000	0.000000000000000E+000	-1.07274e-06	0.000000000000000E+000	0.000201133	0.000201133	0.0000000E+000	0.0000000E+000	0.0148	1	4.78225e-05	3.54305	218298
1	1	0	1	0	0	2	14	90742	0.0148	3.36002	0.0148011	0.00370207	0.0618888	0.00131166	0.024225	2	-0.312881	8.06164e-05	0.000000000000000E+000	0.000000000000000E+000	0.000000000000000E+000	-1.75334e-06	0.000000000000000E+000	0.024225	0.024225	0.0000000E+000	0.0000000E+000	0.0148	1	4.97318e-05	3.6729	227012
1	1	0	1	0	0	2	14	103823	0.0148	3.4907	0.0148009	0.00359623	0.115669	0.00149596	0.0780055	2	-0.312594	0.000264925	0.000000000000000E+000	0.000000000000000E+000	0.000000000000000E+000	-3.27698e-06	0.000000000000000E+000	0.0780055	0.0780055	0.0000000E+000	0.0000000E+000	0.0148	1	5.16656e-05	3.8033	235843
1	1	0	1	0	0	2	14	111183	0.0148	3.62122	0.0148017	0.0020378	0.145929	0.0016034	0.108265	2	-0.312575	0.000372358	0.000000000000000E+000	0.000000000000000E+000	0.000000000000000E+000	-4.13424e-06	0.000000000000000E+000	0.108265	0.108265	0.0000000E+000	0.0000000E+000	0.0148	1	5.36001e-05	3.93379	244649
1	1	0	1	0	0	2	14	118070	0.0148	3.75146	0.0148007	0.00210757	0.174245	0.00170778	0.136581	2	-0.312823	0.000476742	0.000000000000000E+000	0.000000000000000E+000	0.000000000000000E+000	-4.93646e-06	0.000000000000000E+000	0.136581	0.136581	0.0000000E+000	0.0000000E+000	0.0148	1	5.55244e-05	4.06428	253464
1	1	0	1	0	0	2	14	124652	0.0148	3.88157	0.0148014	0.00271341	0.201309	0.00181115	0.163645	2	-0.313186	0.000580108	0.000000000000000E+000	0.000000000000000E+000	0.000000000000000E+000	-5.70319e-06	0.000000000000000E+000	0.163645	0.163645	0.0000000E+000	0.0000000E+000	0.0148	1	5.74529e-05	4.19476	262243
2	1	0	0	0	0	3	14	125381	3.88696	3.88789	0.0105495	8.90586e-05	0.204168	0.00182226	0.166504	2	-0.312308	0.000591216	0.000000000000000E+000	0.000000000000000E+000	0.000000000000000E+000	-5.78418e-06	0.000000000000000E+000	0.166504	0.166504	0.0000000E+000	3.88696	0.0000000E+000	1	4.10153e-05	4.2002	368537
2	1	0	0	0	0	3	14	125771	3.88696	3.88775	0.00730923	6.26191e-05	0.205115	0.00182594	0.167452	2	-0.311946	0.000594901	0.000000000000000E+000	0.000000000000000E+000	0.000000000000000E+000	-5.81104e-06	0.000000000000000E+000	0.167452	0.167452	0.0000000E+000	3.88696	0.0000000E+000	1	2.84165e-05	4.1997	531897
2	1	0	0	0	0	3	14	125981	3.88696	3.88787	0.00685612	5.49199e-05	0.205521	0.00182752	0.167857	2	-0.311774	0.000596477	0.000000000000000E+000	0.000000000000000E+000	0.000000000000000E+000	-5.82252e-06	0.000000000000000E+000	0.167857	0.167857	0.0000000E+000	3.88696	0.0000000E+000	1	2.66557e-05	4.19964	567066