File: Analyzed Data/270/270_230530_C02.mpt
EC-Lab ASCII FILE
Nb header lines : 95

Modulo Bat

Run on channel : 2 (SN 55236)
User :
CE vs. WE compliance from -10 V to 10 V
Electrode connection : standard
Potential control : Ewe
Ewe ctrl range : min = -10.00 V, max = 10.00 V
Safety Limits :
	Do not start on E overload
Acquisition started on : 05/30/2023 14:14:03.433
Technique started on : 05/30/2023 14:14:03.433
Loaded Setting File :  C:\Users\OEMS\Documents\EC-Lab\Data\Mitch\Protocols\AMIDR Form.mps
Saved on :
	File : 270_230530_C02.mpr
	Directory : C:\Users\OEMS\Documents\EC-Lab\Data\Mitch\Results\Formation\
	Host : 192.168.1.58
Device : VMP-3e (SN .003109)
Address : USB
EC-Lab for windows v11.43 (software)
Internet server v11.40 (firmware)
Command interpretor v11.40 (firmware)
Electrode material :
Initial state :
Electrolyte :
Comments :
Mass of active material : 2.157 mg
 at x = 0.000
Molecular weight of active material (at x = 0) : 0.001 g/mol
Atomic weight of intercalated ion : 0.001 g/mol
Acquisition started at : xo = 0.000
Number of e- transfered per intercalated ion : 1
for DX = 1, DQ = 57810.834 mA.h
Battery capacity : 0.485 mA.h
Electrode surface area : 0.001 cm²
Characteristic mass : 0.001 g
Volume (V) : 0.001 cm³
Record Ece
Cycle Definition : Charge/Discharge alternance
Ns                  0                   1                   2                   3
ctrl_type           CC                  CC                  CC                  CV
Apply I/C           C / N               C / N               C / N               C / N
current/potential   current             current             current             current
ctrl1_val           60.000              60.000              60.000              0.000
ctrl1_val_unit      µA                  µA                  µA                  V
ctrl1_val_vs        <None>              <None>              <None>              Emeas
ctrl2_val
ctrl2_val_unit
ctrl2_val_vs
ctrl3_val
ctrl3_val_unit
ctrl3_val_vs
N                   20.00               20.00               20.00               20.00
charge/discharge    Charge              Discharge           Charge              Charge
charge/discharge_1  Charge              Charge              Charge              Charge
Apply I/C_1         I                   I                   I                   I
N1                  0.00                0.00                0.00                0.00
ctrl4_val
ctrl4_val_unit
ctrl_seq            0                   0                   0                   0
ctrl_repeat         0                   0                   0                   0
ctrl_trigger        Falling Edge        Falling Edge        Falling Edge        Falling Edge
ctrl_TO_t           0.000               0.000               0.000               0.000
ctrl_TO_t_unit      d                   d                   d                   d
ctrl_Nd             6                   6                   6                   6
ctrl_Na             2                   2                   2                   2
ctrl_corr           0                   0                   0                   0
lim_nb              1                   1                   1                   1
lim1_type           Ewe-Ece             Ewe-Ece             Ewe-Ece             Time
lim1_comp           >                   <                   >                   >
lim1_Q              Q limit             Q limit             Q limit             Q limit
lim1_value          4.200               3.000               4.200               15.000
lim1_value_unit     V                   V                   V                   mn
lim1_action         Next sequence       Next sequence       Next sequence       Next sequence
lim1_seq            1                   2                   3                   4
rec_nb              2                   2                   2                   1
rec1_type           Time                Time                Time                Time
rec1_value          20.000              20.000              20.000              30.000
rec1_value_unit     mn                  mn                  mn                  s
rec2_type           Ewe-Ece             Ewe-Ece             Ewe-Ece             Ewe-Ece
rec2_value          0.010               0.010               0.010               0.010
rec2_value_unit     V                   V                   V                   V
E range min (V)     -10.000             -10.000             -10.000             -10.000
E range max (V)     10.000              10.000              10.000              10.000
I Range             100 µA              100 µA              100 µA              100 µA
I Range min         Unset               Unset               Unset               Unset
I Range max         Unset               Unset               Unset               Unset
I Range init        Unset               Unset               Unset               Unset
auto rest           0                   0                   0                   0
Bandwidth           5                   5                   5                   5

mode	ox/red	error	control changes	Ns changes	counter inc.	Ns	I Range	time/s	control/V/mA	Ewe/V	I/mA	dq/mA.h	(Q-Qo)/mA.h	|Energy|/W.h	Q charge/discharge/mA.h	half cycle	Ece/V	Energy charge/W.h	Energy discharge/W.h	Capacitance charge/µF	Capacitance discharge/µF	x	Q discharge/mA.h	Q charge/mA.h	Capacity/mA.h	Efficiency/%	control/V	control/mA	cycle number	P/W	Ewe-Ece/V	R/Ohm
1	1	0	0	0	0	0	13	0.000000000000000E+000	0.02425	2.63771	0.0240616	0.000000000000000E+000	0.000000000000000E+000	0.000000000000000E+000	0.000000000000000E+000	0	-0.315727	0.000000000000000E+000	0.000000000000000E+000	0.000000000000000E+000	0.000000000000000E+000	0.000000000000000E+000	0.000000000000000E+000	0.000000000000000E+000	0.000000000000000E+000	0.0000000E+000	0.0000000E+000	0.02425	0.000000000000000E+000	6.34675e-05	2.95344	109623
1	1	0	0	0	0	0	13	5.6306	0.02425	2.77621	0.0242022	3.7331e-06	3.78468e-05	1.02744e-07	3.78468e-05	0	-0.317994	1.02744e-07	0.000000000000000E+000	0.000000000000000E+000	0.000000000000000E+000	-6.54667e-10	0.000000000000000E+000	3.78468e-05	3.78468e-05	0.0000000E+000	0.0000000E+000	0.02425	0.000000000000000E+000	6.71904e-05	3.09421	114709
1	1	0	0	0	0	0	13	18.3456	0.02425	2.91693	0.024192	9.11001e-06	0.000123309	3.46898e-07	0.000123309	0	-0.317994	3.46898e-07	0.000000000000000E+000	0.000000000000000E+000	0.000000000000000E+000	-2.13297e-09	0.000000000000000E+000	0.000123309	0.000123309	0.0000000E+000	0.0000000E+000	0.02425	0.000000000000000E+000	7.05662e-05	3.23492	120574
1	1	0	0	0	0	0	13	54.3218	0.02425	3.05714	0.0241926	2.93129e-05	0.000365107	1.07239e-06	0.000365107	0	-0.318204	1.07239e-06	0.000000000000000E+000	0.000000000000000E+000	0.000000000000000E+000	-6.31555e-09	0.000000000000000E+000	0.000365107	0.000365107	0.0000000E+000	0.0000000E+000	0.02425	0.000000000000000E+000	7.39603e-05	3.37535	126367
1	1	0	0	0	0	0	13	579.047	0.02425	3.19679	0.0241926	0.000681416	0.00389162	1.22305e-05	0.00389162	0	-0.31891	1.22305e-05	0.000000000000000E+000	0.000000000000000E+000	0.000000000000000E+000	-6.73165e-08	0.000000000000000E+000	0.00389162	0.00389162	0.0000000E+000	0.0000000E+000	0.02425	0.000000000000000E+000	7.73387e-05	3.5157	132139
1	1	0	0	0	0	0	13	6751.14	0.02425	3.32111	0.0241933	0.00806442	0.0453707	0.000149115	0.0453707	0	-0.316582	0.000149115	0.000000000000000E+000	0.000000000000000E+000	0.000000000000000E+000	-7.84813e-07	0.000000000000000E+000	0.0453707	0.0453707	0.0000000E+000	0.0000000E+000	0.02425	0.000000000000000E+000	8.03484e-05	3.63769	137274
1	1	0	0	0	0	0	13	23551.1	0.02425	3.37644	0.0241894	0.00806378	0.15828	0.000526943	0.15828	0	-0.31454	0.000526943	0.000000000000000E+000	0.000000000000000E+000	0.000000000000000E+000	-2.7379e-06	0.000000000000000E+000	0.15828	0.15828	0.0000000E+000	0.0000000E+000	0.02425	0.000000000000000E+000	8.16742e-05	3.69098	139583
1	1	0	0	0	0	0	13	40330.3	0.02425	3.48965	0.0241888	0.00792696	0.271023	0.000913371	0.271023	0	-0.313089	0.000913371	0.000000000000000E+000	0.000000000000000E+000	0.000000000000000E+000	-4.6881e-06	0.000000000000000E+000	0.271023	0.271023	0.0000000E+000	0.0000000E+000	0.02425	0.000000000000000E+000	8.44105e-05	3.80274	144267
1	1	0	0	0	0	0	13	51041.6	0.02425	3.6308	0.0241882	0.00505697	0.342989	0.00116918	0.342989	0	-0.312192	0.00116918	0.000000000000000E+000	0.000000000000000E+000	0.000000000000000E+000	-5.93296e-06	0.000000000000000E+000	0.342989	0.342989	0.0000000E+000	0.0000000E+000	0.02425	0.000000000000000E+000	8.78225e-05	3.943	150107
1	1	0	0	0	0	0	13	63450.2	0.02425	3.77125	0.0242022	0.00372239	0.42636	0.00147734	0.42636	0	-0.311734	0.00147734	0.000000000000000E+000	0.000000000000000E+000	0.000000000000000E+000	-7.3751e-06	0.000000000000000E+000	0.42636	0.42636	0.0000000E+000	0.0000000E+000	0.02425	0.000000000000000E+000	9.12724e-05	4.08298	155823
1	1	0	0	0	0	0	13	74084.3	0.02425	3.88247	0.0241926	0.00806534	0.497839	0.0017525	0.497839	0	-0.31162	0.0017525	0.000000000000000E+000	0.000000000000000E+000	0.000000000000000E+000	-8.61152e-06	0.000000000000000E+000	0.497839	0.497839	0.0000000E+000	0.0000000E+000	0.02425	0.000000000000000E+000	9.39272e-05	4.19409	160482
1	0	0	1	0	0	1	13	84621.1	-0.02425	3.81591	-0.0243196	-0.00289058	0.454414	0.00202723	-0.0572567	1	-0.309807	0.00180624	0.000220992	0.000000000000000E+000	0.000000000000000E+000	-7.86036e-06	0.0572567	0.000000000000000E+000	0.0572567	0.0000000E+000	0.0000000E+000	-0.02425	0.000000000000000E+000	-9.28014e-05	4.12572	156907
1	0	0	1	0	0	1	13	93353.9	-0.02425	3.67573	-0.0243215	-0.00758779	0.395433	0.00224727	-0.116237	1	-0.309711	0.00180624	0.000441028	0.000000000000000E+000	0.000000000000000E+000	-6.84013e-06	0.116237	0.000000000000000E+000	0.116237	0.0000000E+000	0.0000000E+000	-0.02425	0.000000000000000E+000	-8.93993e-05	3.98544	151131
1	0	0	1	0	0	1	13	103203	-0.02425	3.53582	-0.024312	-0.0041861	0.328907	0.00248767	-0.182763	1	-0.30952	0.00180624	0.000681436	0.000000000000000E+000	0.000000000000000E+000	-5.68937e-06	0.182763	0.000000000000000E+000	0.182763	0.0000000E+000	0.0000000E+000	-0.02425	0.000000000000000E+000	-8.59627e-05	3.84534	145435
1	0	0	1	0	0	1	13	116531	-0.02425	3.39575	-0.0243056	-0.00677674	0.238897	0.00279922	-0.272774	1	-0.309387	0.00180624	0.00099298	0.000000000000000E+000	0.000000000000000E+000	-4.13239e-06	0.272774	0.000000000000000E+000	0.272774	0.0000000E+000	0.0000000E+000	-0.02425	0.000000000000000E+000	-8.25359e-05	3.70514	139711
1	0	0	1	0	0	1	13	128237	-0.02425	3.25792	-0.0243107	-0.00188275	0.159857	0.00306325	-0.351813	1	-0.30933	0.00180624	0.00125701	0.000000000000000E+000	0.000000000000000E+000	-2.76518e-06	0.351813	0.000000000000000E+000	0.351813	0.0000000E+000	0.0000000E+000	-0.02425	0.000000000000000E+000	-7.92024e-05	3.56725	134012
1	0	0	1	0	0	1	13	130020	-0.02425	3.11759	-0.0243094	-0.000466058	0.147823	0.0031018	-0.363847	1	-0.309349	0.00180624	0.00129556	0.000000000000000E+000	0.000000000000000E+000	-2.55702e-06	0.363847	0.000000000000000E+000	0.363847	0.0000000E+000	0.0000000E+000	-0.02425	0.000000000000000E+000	-7.57868e-05	3.42694	128246
1	0	0	1	0	0	1	13	130733	-0.02425	2.97741	-0.0243024	-0.000271948	0.143007	0.00311651	-0.368663	1	-0.309215	0.00180624	0.00131027	0.000000000000000E+000	0.000000000000000E+000	-2.47371e-06	0.368663	0.000000000000000E+000	0.368663	0.0000000E+000	0.0000000E+000	-0.02425	0.000000000000000E+000	-7.23583e-05	3.28663	122515
1	0	0	1	0	0	1	13	131213	-0.02425	2.83695	-0.0243094	-0.000198449	0.139767	0.00312594	-0.371903	1	-0.30931	0.00180624	0.0013197	0.000000000000000E+000	0.000000000000000E+000	-2.41767e-06	0.371903	0.000000000000000E+000	0.371903	0.0000000E+000	0.0000000E+000	-0.02425	0.000000000000000E+000	-6.89645e-05	3.14626	116701
1	0	0	1	0	0	1	13	131567	-0.02425	2.69673	-0.0243024	-0.000154152	0.137376	0.00313257	-0.374295	1	-0.30931	0.00180624	0.00132633	0.000000000000000E+000	0.000000000000000E+000	-2.3763e-06	0.374295	0.000000000000000E+000	0.374295	0.0000000E+000	0.0000000E+000	-0.02425	0.000000000000000E+000	-6.5537e-05	3.00604	110965
1	1	0	0	0	0	2	13	131584	0.02425	2.79944	0.0242028	1.83911e-06	0.137297	0.00313287	1.62896e-05	2	-0.310761	4.47925e-08	0.000000000000000E+000	0.000000000000000E+000	0.000000000000000E+000	-2.37494e-06	0.000000000000000E+000	1.62896e-05	1.62896e-05	0.0000000E+000	0.0000000E+000	0.02425	1	6.77543e-05	3.1102	115666
1	1	0	0	0	0	2	13	131588	0.02425	2.93979	0.0241945	2.84334e-06	0.13733	0.00313296	4.93343e-05	2	-0.310894	1.39791e-07	0.000000000000000E+000	0.000000000000000E+000	0.000000000000000E+000	-2.37551e-06	0.000000000000000E+000	4.93343e-05	4.93343e-05	0.0000000E+000	0.0000000E+000	0.02425	1	7.11269e-05	3.25069	121507
1	1	0	0	0	0	2	13	131596	0.02425	3.08013	0.0241945	4.50497e-06	0.137383	0.00313312	0.000101782	2	-0.311009	2.97928e-07	0.000000000000000E+000	0.000000000000000E+000	0.000000000000000E+000	-2.37641e-06	0.000000000000000E+000	0.000101782	0.000101782	0.0000000E+000	0.0000000E+000	0.02425	1	7.45222e-05	3.39113	127307
1	1	0	0	0	0	2	13	131611	0.02425	3.22065	0.024199	1.19838e-05	0.13748	0.00313343	0.000199425	2	-0.311009	6.06614e-07	0.000000000000000E+000	0.000000000000000E+000	0.000000000000000E+000	-2.3781e-06	0.000000000000000E+000	0.000199425	0.000199425	0.0000000E+000	0.0000000E+000	0.02425	1	7.79364e-05	3.53166	133090
1	1	0	0	0	0	2	13	139035	0.02425	3.35216	0.0241958	0.00806692	0.187386	0.00329943	0.0501051	2	-0.3112	0.00016661	0.000000000000000E+000	0.000000000000000E+000	0.000000000000000E+000	-3.24136e-06	0.000000000000000E+000	0.0501051	0.0501051	0.0000000E+000	0.0000000E+000	0.02425	1	8.11083e-05	3.66336	138543
1	1	0	0	0	0	2	13	155042	0.02425	3.48354	0.0241875	0.00736697	0.294981	0.00366665	0.1577	2	-0.311257	0.000533827	0.000000000000000E+000	0.000000000000000E+000	0.000000000000000E+000	-5.10252e-06	0.000000000000000E+000	0.1577	0.1577	0.0000000E+000	0.0000000E+000	0.02425	1	8.42583e-05	3.7948	144022
1	1	0	0	0	0	2	13	164977	0.02425	3.62408	0.0241907	0.00458322	0.361745	0.00390348	0.224464	2	-0.311085	0.000770663	0.000000000000000E+000	0.000000000000000E+000	0.000000000000000E+000	-6.25739e-06	0.000000000000000E+000	0.224464	0.224464	0.0000000E+000	0.0000000E+000	0.02425	1	8.76692e-05	3.93517	149813
1	1	0	0	0	0	2	13	177098	0.02425	3.76465	0.0241901	0.00352505	0.443176	0.00420394	0.305895	2	-0.31078	0.00107112	0.000000000000000E+000	0.000000000000000E+000	0.000000000000000E+000	-7.66596e-06	0.000000000000000E+000	0.305895	0.305895	0.0000000E+000	0.0000000E+000	0.02425	1	9.10671e-05	4.07543	155628
1	1	0	0	0	0	2	13	186716	0.02425	3.88371	0.0241875	0.00806126	0.507785	0.00445248	0.370504	2	-0.310837	0.00131966	0.000000000000000E+000	0.000000000000000E+000	0.000000000000000E+000	-8.78355e-06	0.000000000000000E+000	0.370504	0.370504	0.0000000E+000	0.0000000E+000	0.02425	1	9.39375e-05	4.19455	160567
2	1	0	1	0	0	3	13	188902	3.88892	3.88965	0.0215032	0.000180953	0.522506	0.0045097	0.385226	2	-0.310818	0.00137687	0.000000000000000E+000	0.000000000000000E+000	0.000000000000000E+000	-9.03821e-06	0.000000000000000E+000	0.385226	0.385226	0.0000000E+000	3.88892	0.0000000E+000	1	8.36399e-05	4.20047	180887
2	1	0	1	0	0	3	13	189322	3.88892	3.8898	0.0163196	0.000141134	0.524718	0.0045183	0.387438	2	-0.310761	0.00138548	0.000000000000000E+000	0.000000000000000E+000	0.000000000000000E+000	-9.07647e-06	0.000000000000000E+000	0.387438	0.387438	0.0000000E+000	3.88892	0.0000000E+000	1	6.348e-05	4.20056	238352
2	1	0	1	0	0	3	13	189502	3.88892	3.88963	0.0154965	0.000129392	0.525524	0.00452143	0.388243	2	-0.310761	0.00138861	0.000000000000000E+000	0.000000000000000E+000	0.000000000000000E+000	-9.09041e-06	0.000000000000000E+000	0.388243	0.388243	0.0000000E+000	3.88892	0.0000000E+000	1	6.02756e-05	4.20039	251001