File: Fresh Data/259/259_230525_C09.mpt
EC-Lab ASCII FILE
Nb header lines : 95

Modulo Bat

Run on channel : 9 (SN 55224)
User :
CE vs. WE compliance from -10 V to 10 V
Electrode connection : standard
Potential control : Ewe
Ewe ctrl range : min = -10.00 V, max = 10.00 V
Safety Limits :
	Do not start on E overload
Acquisition started on : 05/25/2023 17:46:33.771
Technique started on : 05/25/2023 17:46:33.771
Loaded Setting File :  C:\Users\OEMS\Documents\EC-Lab\Data\Mitch\Protocols\AMIDR Form.mps
Saved on :
	File : 259_230525_C09.mpr
	Directory : C:\Users\OEMS\Documents\EC-Lab\Data\Mitch\Results\Formation\
	Host : 192.168.1.58
Device : VMP-3e (SN .003109)
Address : USB
EC-Lab for windows v11.43 (software)
Internet server v11.40 (firmware)
Command interpretor v11.40 (firmware)
Electrode material :
Initial state :
Electrolyte :
Comments :
Mass of active material : 2.687 mg
 at x = 0.000
Molecular weight of active material (at x = 0) : 0.001 g/mol
Atomic weight of intercalated ion : 0.001 g/mol
Acquisition started at : xo = 0.000
Number of e- transfered per intercalated ion : 1
for DX = 1, DQ = 72015.628 mA.h
Battery capacity : 0.604 mA.h
Electrode surface area : 0.001 cm²
Characteristic mass : 0.001 g
Volume (V) : 0.001 cm³
Record Ece
Cycle Definition : Charge/Discharge alternance
Ns                  0                   1                   2                   3
ctrl_type           CC                  CC                  CC                  CV
Apply I/C           C / N               C / N               C / N               C / N
current/potential   current             current             current             current
ctrl1_val           60.000              60.000              60.000              0.000
ctrl1_val_unit      µA                  µA                  µA                  V
ctrl1_val_vs        <None>              <None>              <None>              Emeas
ctrl2_val
ctrl2_val_unit
ctrl2_val_vs
ctrl3_val
ctrl3_val_unit
ctrl3_val_vs
N                   20.00               20.00               20.00               20.00
charge/discharge    Charge              Discharge           Charge              Charge
charge/discharge_1  Charge              Charge              Charge              Charge
Apply I/C_1         I                   I                   I                   I
N1                  0.00                0.00                0.00                0.00
ctrl4_val
ctrl4_val_unit
ctrl_seq            0                   0                   0                   0
ctrl_repeat         0                   0                   0                   0
ctrl_trigger        Falling Edge        Falling Edge        Falling Edge        Falling Edge
ctrl_TO_t           0.000               0.000               0.000               0.000
ctrl_TO_t_unit      d                   d                   d                   d
ctrl_Nd             6                   6                   6                   6
ctrl_Na             2                   2                   2                   2
ctrl_corr           0                   0                   0                   0
lim_nb              1                   1                   1                   1
lim1_type           Ewe-Ece             Ewe-Ece             Ewe-Ece             Time
lim1_comp           >                   <                   >                   >
lim1_Q              Q limit             Q limit             Q limit             Q limit
lim1_value          4.200               3.000               4.200               15.000
lim1_value_unit     V                   V                   V                   mn
lim1_action         Next sequence       Next sequence       Next sequence       Next sequence
lim1_seq            1                   2                   3                   4
rec_nb              2                   2                   2                   1
rec1_type           Time                Time                Time                Time
rec1_value          20.000              20.000              20.000              30.000
rec1_value_unit     mn                  mn                  mn                  s
rec2_type           Ewe-Ece             Ewe-Ece             Ewe-Ece             Ewe-Ece
rec2_value          0.010               0.010               0.010               0.010
rec2_value_unit     V                   V                   V                   V
E range min (V)     -10.000             -10.000             -10.000             -10.000
E range max (V)     10.000              10.000              10.000              10.000
I Range             100 µA              100 µA              100 µA              100 µA
I Range min         Unset               Unset               Unset               Unset
I Range max         Unset               Unset               Unset               Unset
I Range init        Unset               Unset               Unset               Unset
auto rest           0                   0                   0                   0
Bandwidth           5                   5                   5                   5

mode	ox/red	error	control changes	Ns changes	counter inc.	Ns	I Range	time/s	control/V/mA	Ewe/V	I/mA	dq/mA.h	(Q-Qo)/mA.h	|Energy|/W.h	Q charge/discharge/mA.h	half cycle	Ece/V	Energy charge/W.h	Energy discharge/W.h	Capacitance charge/µF	Capacitance discharge/µF	x	Q discharge/mA.h	Q charge/mA.h	Capacity/mA.h	Efficiency/%	control/V	control/mA	cycle number	P/W	Ewe-Ece/V	R/Ohm
1	1	0	1	0	0	0	13	0.000000000000000E+000	0.0302	2.58677	0.030049	0.000000000000000E+000	0.000000000000000E+000	0.000000000000000E+000	0.000000000000000E+000	0	-0.318797	0.000000000000000E+000	0.000000000000000E+000	0.000000000000000E+000	0.000000000000000E+000	0.000000000000000E+000	0.000000000000000E+000	0.000000000000000E+000	0.000000000000000E+000	0.0000000E+000	0.0000000E+000	0.0302	0.000000000000000E+000	7.773e-05	2.90557	86085
1	1	0	1	0	0	0	13	3.4562	0.0302	2.6917	0.0302107	3.23396e-06	2.90019e-05	7.66341e-08	2.90019e-05	0	-0.324359	7.66341e-08	0.000000000000000E+000	0.000000000000000E+000	0.000000000000000E+000	-4.02717e-10	0.000000000000000E+000	2.90019e-05	2.90019e-05	0.0000000E+000	0.0000000E+000	0.0302	0.000000000000000E+000	8.1318e-05	3.01606	89097.4
1	1	0	1	0	0	0	13	9.0296	0.0302	2.8025	0.0302069	5.32159e-06	7.57685e-05	2.05318e-07	7.57685e-05	0	-0.324321	2.05318e-07	0.000000000000000E+000	0.000000000000000E+000	0.000000000000000E+000	-1.05211e-09	0.000000000000000E+000	7.57685e-05	7.57685e-05	0.0000000E+000	0.0000000E+000	0.0302	0.000000000000000E+000	8.46547e-05	3.12682	92776.8
1	1	0	1	0	0	0	13	18.6792	0.0302	2.91328	0.0302113	9.46661e-06	0.000156738	4.37128e-07	0.000156738	0	-0.324206	4.37128e-07	0.000000000000000E+000	0.000000000000000E+000	0.000000000000000E+000	-2.17644e-09	0.000000000000000E+000	0.000156738	0.000156738	0.0000000E+000	0.0000000E+000	0.0302	0.000000000000000E+000	8.8014e-05	3.23748	96430
1	1	0	1	0	0	0	13	35.2766	0.0302	3.02351	0.0302082	1.58314e-05	0.000296002	8.51157e-07	0.000296002	0	-0.324378	8.51157e-07	0.000000000000000E+000	0.000000000000000E+000	0.000000000000000E+000	-4.11025e-09	0.000000000000000E+000	0.000296002	0.000296002	0.0000000E+000	0.0000000E+000	0.0302	0.000000000000000E+000	9.13345e-05	3.34788	100089
1	1	0	1	0	0	0	13	68.651	0.0302	3.13368	0.0302171	4.00867e-05	0.000576032	1.71567e-06	0.000576032	0	-0.324645	1.71567e-06	0.000000000000000E+000	0.000000000000000E+000	0.000000000000000E+000	-7.99871e-09	0.000000000000000E+000	0.000576032	0.000576032	0.0000000E+000	0.0000000E+000	0.0302	0.000000000000000E+000	9.46905e-05	3.45832	103706
1	1	0	1	0	0	0	13	297.216	0.0302	3.24425	0.0302075	0.000210262	0.00249377	7.85929e-06	0.00249377	0	-0.324626	7.85929e-06	0.000000000000000E+000	0.000000000000000E+000	0.000000000000000E+000	-3.46282e-08	0.000000000000000E+000	0.00249377	0.00249377	0.0000000E+000	0.0000000E+000	0.0302	0.000000000000000E+000	9.80007e-05	3.56887	107399
1	1	0	1	0	0	0	13	531.077	0.0302	3.35619	0.0302101	0.000400987	0.00445591	1.43511e-05	0.00445591	0	-0.323176	1.43511e-05	0.000000000000000E+000	0.000000000000000E+000	0.000000000000000E+000	-6.18742e-08	0.000000000000000E+000	0.00445591	0.00445591	0.0000000E+000	0.0000000E+000	0.0302	0.000000000000000E+000	0.000101391	3.67937	111095
1	1	0	1	0	0	0	13	10959.5	0.0302	3.44681	0.0302043	0.0100686	0.0919561	0.000313245	0.0919561	0	-0.31692	0.000313245	0.000000000000000E+000	0.000000000000000E+000	0.000000000000000E+000	-1.27689e-06	0.000000000000000E+000	0.0919561	0.0919561	0.0000000E+000	0.0000000E+000	0.0302	0.000000000000000E+000	0.000104109	3.76373	114116
1	1	0	1	0	0	0	13	24159.5	0.0302	3.52747	0.0302024	0.010068	0.202706	0.000699305	0.202706	0	-0.315509	0.000699305	0.000000000000000E+000	0.000000000000000E+000	0.000000000000000E+000	-2.81475e-06	0.000000000000000E+000	0.202706	0.202706	0.0000000E+000	0.0000000E+000	0.0302	0.000000000000000E+000	0.000106538	3.84298	116794
1	1	0	1	0	0	0	13	33756.9	0.0302	3.63808	0.0302005	0.00545158	0.283228	0.000987245	0.283228	0	-0.314765	0.000987245	0.000000000000000E+000	0.000000000000000E+000	0.000000000000000E+000	-3.93287e-06	0.000000000000000E+000	0.283228	0.283228	0.0000000E+000	0.0000000E+000	0.0302	0.000000000000000E+000	0.000109872	3.95284	120464
1	1	0	1	0	0	0	13	40003.8	0.0302	3.7489	0.030205	0.00444446	0.335637	0.00118072	0.335637	0	-0.314269	0.00118072	0.000000000000000E+000	0.000000000000000E+000	0.000000000000000E+000	-4.66062e-06	0.000000000000000E+000	0.335637	0.335637	0.0000000E+000	0.0000000E+000	0.0302	0.000000000000000E+000	0.000113235	4.06317	124115
1	1	0	1	0	0	0	13	45510.1	0.0302	3.85989	0.0302107	0.00410164	0.381833	0.00135642	0.381833	0	-0.313602	0.00135642	0.000000000000000E+000	0.000000000000000E+000	0.000000000000000E+000	-5.30208e-06	0.000000000000000E+000	0.381833	0.381833	0.0000000E+000	0.0000000E+000	0.0302	0.000000000000000E+000	0.00011661	4.17349	127766
1	0	0	0	0	0	1	13	48486.2	-0.0302	3.82973	-0.0302058	-0.00287012	0.378733	0.00145287	-0.0140341	1	-0.310245	0.00139877	5.41066e-05	0.000000000000000E+000	0.000000000000000E+000	-5.25904e-06	0.0140341	0.000000000000000E+000	0.0140341	0.0000000E+000	0.0000000E+000	-0.0302	0.000000000000000E+000	-0.00011568	4.13998	126788
1	0	0	0	0	0	1	13	52875.7	-0.0302	3.71939	-0.0302039	-0.00372868	0.341907	0.0015918	-0.0508601	1	-0.310207	0.00139877	0.000193031	0.000000000000000E+000	0.000000000000000E+000	-4.74767e-06	0.0508601	0.000000000000000E+000	0.0508601	0.0000000E+000	0.0000000E+000	-0.0302	0.000000000000000E+000	-0.00011234	4.0296	123143
1	0	0	0	0	0	1	13	58410.7	-0.0302	3.60935	-0.0302071	-0.00491198	0.295472	0.00176184	-0.0972945	1	-0.309959	0.00139877	0.000363078	0.000000000000000E+000	0.000000000000000E+000	-4.10289e-06	0.0972945	0.000000000000000E+000	0.0972945	0.0000000E+000	0.0000000E+000	-0.0302	0.000000000000000E+000	-0.000109028	3.91931	119487
1	0	0	0	0	0	1	13	67752.1	-0.0302	3.49922	-0.0301931	-0.010038	0.217105	0.00203985	-0.175662	1	-0.309596	0.00139877	0.000641088	0.000000000000000E+000	0.000000000000000E+000	-3.01469e-06	0.175662	0.000000000000000E+000	0.175662	0.0000000E+000	0.0000000E+000	-0.0302	0.000000000000000E+000	-0.000105652	3.80882	115895
1	0	0	0	0	0	1	13	80678.9	-0.0302	3.40315	-0.0302001	-0.0086335	0.108656	0.00241436	-0.284111	1	-0.309596	0.00139877	0.0010156	0.000000000000000E+000	0.000000000000000E+000	-1.50878e-06	0.284111	0.000000000000000E+000	0.284111	0.0000000E+000	0.0000000E+000	-0.0302	0.000000000000000E+000	-0.000102775	3.71274	112687
1	0	0	0	0	0	1	13	84728.5	-0.0302	3.29282	-0.0302013	-0.000625633	0.0746817	0.00252887	-0.318085	1	-0.30952	0.00139877	0.0011301	0.000000000000000E+000	0.000000000000000E+000	-1.03702e-06	0.318085	0.000000000000000E+000	0.318085	0.0000000E+000	0.0000000E+000	-0.0302	0.000000000000000E+000	-9.94477e-05	3.60234	109029
1	0	0	0	0	0	1	13	85085.4	-0.0302	3.18508	-0.0298659	-0.000128646	0.0716878	0.0025386	-0.321079	1	-0.30685	0.00139877	0.00113983	0.000000000000000E+000	0.000000000000000E+000	-9.95448e-07	0.321079	0.000000000000000E+000	0.321079	0.0000000E+000	0.0000000E+000	-0.0302	0.000000000000000E+000	-9.51253e-05	3.49193	106646
1	1	0	1	1	0	2	13	85085.6	0.0302	3.08863	0.00807784	-2.8923e-09	0.0716861	0.0025386	-0.321081	1	-0.382636	0.00139877	0.00113984	0.000000000000000E+000	0.000000000000000E+000	-9.95424e-07	0.321081	0.000000000000000E+000	0.321081	81.7484	0.0000000E+000	0.0302	0.000000000000000E+000	2.49494e-05	3.47126	382358
1	1	0	1	0	0	2	13	85091.2	0.0302	3.29239	0.0302101	8.50526e-06	0.0717327	0.00253875	4.6615e-05	2	-0.312171	1.51608e-07	0.000000000000000E+000	0.000000000000000E+000	0.000000000000000E+000	-9.96072e-07	0.000000000000000E+000	4.6615e-05	4.6615e-05	0.0000000E+000	0.0000000E+000	0.0302	1	9.94632e-05	3.60456	108983
1	1	0	1	0	0	2	13	85601.2	0.0302	3.39323	0.0302056	1.67809e-09	0.076005	0.00255316	0.00431887	2	-0.303817	1.45601e-05	0.000000000000000E+000	0.000000000000000E+000	0.000000000000000E+000	-1.0554e-06	0.000000000000000E+000	0.00431887	0.00431887	0.0000000E+000	0.0000000E+000	0.0302	1	0.000102495	3.69704	112338
1	1	0	1	0	0	2	13	97777.4	0.0302	3.4778	0.0301973	0.0100664	0.178153	0.00290422	0.106467	2	-0.312572	0.000365615	0.000000000000000E+000	0.000000000000000E+000	0.000000000000000E+000	-2.47381e-06	0.000000000000000E+000	0.106467	0.106467	0.0000000E+000	0.0000000E+000	0.0302	1	0.00010502	3.79037	115169
1	1	0	1	0	0	2	13	109175	0.0302	3.5824	0.0302005	0.00636382	0.273765	0.00324109	0.202079	2	-0.312686	0.000702485	0.000000000000000E+000	0.000000000000000E+000	0.000000000000000E+000	-3.80147e-06	0.000000000000000E+000	0.202079	0.202079	0.0000000E+000	0.0000000E+000	0.0302	1	0.00010819	3.89508	118620
1	1	0	1	0	0	2	13	115643	0.0302	3.69257	0.0301967	0.00428114	0.328019	0.00343824	0.256333	2	-0.312743	0.000899635	0.000000000000000E+000	0.000000000000000E+000	0.000000000000000E+000	-4.55483e-06	0.000000000000000E+000	0.256333	0.256333	0.0000000E+000	0.0000000E+000	0.0302	1	0.000111503	4.00531	122284
1	1	0	1	0	0	2	13	120872	0.0302	3.80283	0.0301967	0.00376368	0.371885	0.00360258	0.300199	2	-0.312724	0.00106397	0.000000000000000E+000	0.000000000000000E+000	0.000000000000000E+000	-5.16395e-06	0.000000000000000E+000	0.300199	0.300199	0.0000000E+000	0.0000000E+000	0.0302	1	0.000114833	4.11556	125935
2	0	0	0	1	0	3	13	124596	3.88708	3.88698	-0.0330158	6.55376e-09	0.403125	0.00372269	0.331439	2	-0.311961	0.00118409	0.000000000000000E+000	0.000000000000000E+000	0.000000000000000E+000	-5.59774e-06	0.000000000000000E+000	0.331439	0.331439	0.0000000E+000	3.88708	0.0000000E+000	1	-0.000128332	4.19894	117731
2	1	0	0	0	0	3	13	124926	3.88708	3.88534	0.00508585	4.4506e-05	0.403556	0.00372477	0.33187	2	-0.311885	0.00118594	2.24206e-07	0.000000000000000E+000	0.000000000000000E+000	-5.60373e-06	0.000000000000000E+000	0.33187	0.33187	0.0000000E+000	3.88708	0.0000000E+000	1	1.97602e-05	4.19723	763952
2	1	0	0	0	0	3	13	125256	3.88708	3.88538	0.00481344	3.55562e-05	0.403986	0.00372644	0.3323	2	-0.311847	0.00118761	2.24206e-07	0.000000000000000E+000	0.000000000000000E+000	-5.6097e-06	0.000000000000000E+000	0.3323	0.3323	0.0000000E+000	3.88708	0.0000000E+000	1	1.87021e-05	4.19723	807194
2	1	0	0	0	0	3	13	125496	3.88708	3.8853	0.00388612	3.20582e-05	0.404254	0.00372748	0.332568	2	-0.311866	0.00118865	2.24206e-07	0.000000000000000E+000	0.000000000000000E+000	-5.61342e-06	0.000000000000000E+000	0.332568	0.332568	0.0000000E+000	3.88708	0.0000000E+000	1	1.50988e-05	4.19717	999790